File: Results/XRD_BRT_BRT_brACA_karid.csv
"","Age","MPCOQ","MAAT","MAF","AI"
"1",56,41.283,7.51957,10.8295,2342.11
"2",141,43.6458,6.31567,11.117,1653.32
"3",441,46.4884,8.51634,11.5562,2536.33
"4",672,40.1567,7.47978,13.7689,1442.57
"5",918,18.923,3.85639,10.9983,1157.2
"6",1158,15.2272,4.72482,11.0021,2440.87
"7",1393,26.2755,0.168198,7.54625,2940.51
"8",1640,9.98676,-0.657617,8.3191,2547.48
"9",1883,8.72416,-0.808436,7.16458,2832.06
"10",2227,-5.92006,0.039504,7.74174,3694.83
"11",2392,-21.4591,-0.748554,8.86803,3322.56
"12",2568,-3.77853,1.47433,9.67213,3399.66
"13",2747,-10.4759,0.549409,10.0708,3131.2
"14",2910,7.28766,2.3432,10.6232,3468.18
"15",3083,-2.34026,2.96292,9.34193,3585.02
"16",3237,3.49097,1.18573,9.80148,3307.25
"17",3360,12.3985,1.77056,11.6052,3307.77
"18",3478,2.44796,4.42889,10.0755,3263.46
"19",3598,11.457,3.55752,10.0157,3214.78
"20",3716,67.7384,8.46305,13.0251,2586
"21",3835,62.2174,9.05403,12.5156,2882.69
"22",3950,35.0023,4.41027,9.19766,3458.13
"23",4071,63.8476,3.82086,8.41203,3561.2
"24",4183,27.1083,2.08268,7.35562,3437.11
"25",4302,16.4701,0.0252128,7.53088,3276.07
"26",4422,20.6501,3.11805,7.73707,3180.32
"27",4537,48.08,2.22029,9.05027,3497.31
"28",4645,58.632,-0.991177,7.70591,3142.91
"29",4786,14.863,-0.379147,7.15908,3292.39
"30",4923,99.1587,4.07639,8.43212,3766.28
"31",5057,64.2954,2.92159,9.34458,3095.06
"32",5173,29.7826,0.638333,9.13882,3286.63
"33",5289,92.901,2.49487,9.55043,2809.8
"34",5403,14.9458,-1.09217,8.81359,2960.96
"35",5517,31.6556,0.785883,8.69248,3413.65
"36",5601,55.1596,4.69283,9.49367,3540.21
"37",5683,66.0896,0.941548,8.19028,3258.74
"38",5766,35.1847,1.90945,10.1962,2477.04
"39",5849,85.8876,3.47842,11.1023,3253.61
"40",5932,67.8517,3.42674,11.0566,3567.65
"41",6056,113.173,1.23935,8.62679,3714.54
"42",6182,74.4405,0.599551,8.54984,3805.19
"43",6308,98.2384,0.192095,7.7038,3748.4
"44",6435,58.7799,0.464851,8.43317,2933.07
"45",6562,44.1614,1.32502,8.45257,2974.73
"46",6688,80.5774,1.03142,8.02993,3783.68
"47",6815,49.5789,-3.13756,5.92768,3081.89
"48",6943,65.5706,0.214354,7.03848,3603.04
"49",7075,41.8466,0.151559,7.86843,2951.89
"50",7273,57.7389,1.18124,9.52809,3064.45