File: Results/XRD_BRT_BRT_brACA_kwet.csv
"","Age","MPCOQ","MAAT","MAF","AI"
"1",56,21.1443,6.31145,12.5045,2486.45
"2",141,17.9077,6.06428,12.5045,2498.8
"3",441,31.5566,5.69635,12.3911,2621.63
"4",672,27.9147,6.10407,12.7517,2794.57
"5",918,34.3436,6.11057,12.8754,2072.33
"6",1158,34.556,6.03062,12.8878,2443.4
"7",1393,10.396,5.24696,12.4676,2867.7
"8",1640,24.1274,4.8293,10.9485,3342.54
"9",1883,-1.32421,4.49466,11.4842,3267.86
"10",2227,-14.9584,0.600999,7.94623,3553.95
"11",2392,-16.3154,0.0744336,7.86035,3938.1
"12",2568,-22.6047,0.494271,8.70232,3214.97
"13",2747,-9.68376,3.0353,10.6218,3155.6
"14",2910,13.5843,1.0975,9.28164,3541.52
"15",3083,8.47901,2.0883,9.73194,3041.8
"16",3237,-19.9612,0.500673,8.57421,3176.32
"17",3360,0.965093,1.24173,8.46303,3320.81
"18",3478,15.2052,1.11953,8.28777,3625.49
"19",3598,7.67516,2.13641,9.9613,2807.52
"20",3716,39.4928,9.53207,14.993,2017.43
"21",3835,1.6598,3.61464,11.4816,2766.74
"22",3950,5.68851,1.30857,8.12329,2938.53
"23",4071,-1.33345,1.51585,7.28701,2920.87
"24",4183,3.24133,1.63017,6.93755,3205.06
"25",4302,6.37241,1.492,6.93914,3199.12
"26",4422,-0.205339,1.33027,7.71766,2962.23
"27",4537,2.40661,1.74587,7.55421,3485.62
"28",4645,51.2048,4.38531,7.37503,3294.03
"29",4786,-20.9159,1.06255,6.65283,3289.65
"30",4923,35.1541,1.52515,8.31477,3608.78
"31",5057,-19.205,0.993577,7.31408,3424.11
"32",5173,-11.0476,0.705747,6.94826,4076.67
"33",5289,-7.16124,1.06203,7.45386,3475.31
"34",5403,-7.27519,0.107647,6.62535,4258.78
"35",5517,-13.92,-1.17544,6.83601,3940.96
"36",5601,-11.5612,-0.516732,7.34814,3763.29
"37",5683,-11.2277,0.190255,6.93604,3702.51
"38",5766,-19.0132,1.2022,7.36553,3717.13
"39",5849,-12.4079,1.9103,6.84736,3865.35
"40",5932,4.48357,1.99174,8.6072,3902.8
"41",6056,9.98161,1.0334,7.02994,3432.6
"42",6182,4.55785,0.988294,8.17857,3669.79
"43",6308,-6.79807,0.584214,7.82853,3802.28
"44",6435,20.3696,0.693686,6.69363,3798.66
"45",6562,30.3308,1.49749,8.43548,3962.18
"46",6688,33.3738,0.887436,6.6509,4016.98
"47",6815,21.2685,1.485,6.58486,3306.43
"48",6943,-0.647743,0.666534,7.20879,3602.77
"49",7075,26.0496,1.44013,7.81738,3335.99
"50",7273,25.2255,0.754502,8.56158,4109.98