File: Results/XRD_BRT_BRT_brACA.csv
"","Age","MPCOQ","MAAT","MAF","AI"
"1",56,36.997,8.28232,11.3107,2464.8
"2",141,36.8272,6.73354,11.3116,1771.9
"3",441,42.0503,9.76385,11.8405,2494.59
"4",672,29.7322,7.84996,13.9015,1580.84
"5",918,16.4191,2.97427,10.7283,949.72
"6",1158,14.9022,4.10851,11.1978,2288.77
"7",1393,5.05357,-0.403309,7.09105,2507.72
"8",1640,4.56947,-1.63968,6.98268,2497.48
"9",1883,-10.2039,-1.06823,6.99539,2902.18
"10",2227,-1.11674,-0.562347,7.07222,3706.87
"11",2392,-8.25403,-0.782049,7.03442,3720.16
"12",2568,-2.43238,0.779079,8.38328,3536.03
"13",2747,-5.30281,1.27531,10.1779,3254.66
"14",2910,9.16716,2.28953,9.98654,3645.44
"15",3083,1.98769,2.13653,8.99382,3482.13
"16",3237,2.53059,0.614076,8.55234,3281.27
"17",3360,9.69502,1.78563,9.56672,3268.95
"18",3478,7.9168,2.52184,8.44109,3894.28
"19",3598,7.65004,3.1887,9.62736,2994.27
"20",3716,54.9099,7.69009,12.9761,2346.83
"21",3835,50.7777,8.84523,11.9844,2969.47
"22",3950,29.1165,3.53326,9.25242,3339.82
"23",4071,38.7951,3.39619,7.60619,3430
"24",4183,5.66016,1.16561,6.52558,3571.81
"25",4302,3.36592,-0.896966,6.0936,3370.91
"26",4422,9.63959,2.83791,7.42263,3243.91
"27",4537,23.2358,1.52747,8.22371,3396.39
"28",4645,45.4547,0.410797,8.28359,3354.65
"29",4786,-0.0317689,-1.31839,5.92753,3458.3
"30",4923,31.8904,0.61587,8.04475,3635.66
"31",5057,11.7562,-1.73278,7.14755,3464.72
"32",5173,9.04624,-1.64752,6.86614,4008.3
"33",5289,39.2474,-0.476637,8.16006,3052.69
"34",5403,-2.33199,-0.960532,6.82146,3737.09
"35",5517,-7.34272,-3.07114,6.83372,4159.95
"36",5601,2.25195,-0.687753,7.58017,3878.53
"37",5683,9.44273,-1.4372,6.89985,3422.25
"38",5766,-10.7258,0.140836,8.46791,3334.26
"39",5849,11.9427,-1.03416,7.82441,4142.62
"40",5932,13.3368,-0.218149,8.54171,4263.06
"41",6056,56.0402,-1.5381,7.80087,3111.49
"42",6182,7.17612,-1.93838,8.21364,3672.15
"43",6308,26.4155,-1.21137,8.10911,3646.58
"44",6435,18.0311,-2.65738,6.41097,4177.6
"45",6562,12.858,-0.458984,8.21894,4033.25
"46",6688,61.6375,-1.03833,7.83206,4246.66
"47",6815,20.2669,-3.09253,6.02304,3029.72
"48",6943,12.4384,-2.72201,7.06862,3182.14
"49",7075,-0.459862,-2.55871,6.96041,3429.51
"50",7273,3.69269,-0.909082,8.14621,3941.87